2/18/2022	3:49 PM
Amplitude: 0.20 V
Freq  (Hz) 	 Gain (dB)  	 Phase (deg)
  3.000            -15.488              1.407
  3.777            -15.485              1.730
  4.755            -15.482              2.211
  5.986            -15.475              2.766
  7.536            -15.468              3.537
  9.487            -15.453              4.399
 11.943            -15.432              5.546
 15.036            -15.401              6.968
 18.929            -15.349              8.685
 23.830            -15.267             10.875
 30.000            -15.141             13.500
 37.768            -14.951             16.679
 47.547            -14.669             20.410
 59.858            -14.263             24.707
 75.357            -13.675             29.113
 94.868            -12.906             33.987
119.432            -11.932             38.074
150.356            -10.759             42.003
189.287             -9.472             44.239
238.298             -8.040             45.559
300.000             -6.648             44.948
377.678             -5.286             42.910
475.468             -4.049             39.932
598.579             -2.968             36.268
753.566             -2.126             31.315
948.683             -1.466             26.642
1194.322             -0.980             22.155
1503.562             -0.660             17.693
1892.872             -0.422             14.824
2382.985             -0.267             11.965
3000.000             -0.174              9.577
3776.776             -0.111              7.655
4754.680             -0.071              6.111
