2/18/2022	4:57 PM
Amplitude: 2.00 V
Freq  (Hz) 	 Gain (dB)  	 Phase (deg)
104.000              0.047             -3.455
112.297              0.056             -3.663
121.255              0.066             -4.019
130.928              0.078             -4.329
141.373              0.093             -4.719
152.651              0.109             -5.099
164.829              0.129             -5.517
177.978              0.153             -5.932
192.176              0.180             -6.466
207.507              0.213             -6.860
224.061              0.251             -7.563
241.936              0.295             -8.093
261.236              0.347             -8.963
282.076              0.408             -9.684
304.579              0.480            -10.423
328.877              0.563            -11.380
355.113              0.657            -12.506
383.442              0.789            -13.666
414.031              0.935            -15.003
447.061              1.086            -16.540
482.725              1.289            -18.417
521.235              1.491            -20.481
562.816              1.733            -22.937
607.715              2.027            -26.009
656.196              2.332            -29.538
708.544              2.650            -33.740
765.068              3.036            -39.175
826.101              3.413            -46.003
892.004              3.698            -54.217
963.163              3.818            -63.690
1040.000              3.689            -75.105
1122.966              3.198            -87.599
1212.551              2.001             94.824
1309.282              0.992            -110.398
1413.731             -0.461            -119.442
1526.511             -2.003            -126.539
1648.289             -3.741            -133.232
1779.781             -5.355            -138.034
1921.764             -7.055            -142.138
2075.073             -8.577            -145.253
2240.612            -10.148            -147.927
2419.357            -11.651            -150.083
2612.362            -13.123            -151.871
2820.763            -14.610            -153.396
3045.790            -16.030            -154.604
3288.769            -17.432            -155.510
3551.131            -18.818            -156.497
3834.423            -20.178            -157.222
4140.315            -21.559            -157.829
4470.609            -22.913            -158.289
4827.252            -24.245            -158.626
5212.347            -25.558            -158.848
5628.163            -26.868            -158.977
6077.151            -28.198            -159.006
6561.956            -29.494            -158.950
7085.438            -30.793            -158.805
7650.679            -32.073            -158.562
8261.014            -33.380            -158.235
8920.037            -34.634            -157.827
9631.635            -35.927            -157.367
